time (s)	coil I (A)	last det (V)	int current (uC)
6293.292269	0.261341	-130.371094	10.839844
6293.294270	0.565462	-130.371094	10.839844
6293.296271	0.850709	-130.371094	10.839844
6293.298270	0.935391	-130.371094	10.839844
6293.300270	0.932195	10.254147	-0.011110
6294.322845	0.405823	-13.574219	446.386719
6294.324847	0.419580	-13.574219	446.386719
6294.326847	0.921589	-13.574219	446.386719
6294.328847	0.932808	-13.574219	446.386719
6294.330846	0.930420	10.234624	-0.031708
6295.384875	0.270271	-131.445312	10.156250
6295.386875	0.573969	-131.445312	10.156250
6295.388874	0.856572	-131.445312	10.156250
6295.390875	0.934086	-131.445312	10.156250
6295.392875	0.930946	10.240411	-0.009246
6296.412934	0.422512	-12.792969	458.398437
6296.414935	0.720356	-12.792969	458.398437
6296.416937	0.925769	-12.792969	458.398437
6296.418934	0.932685	-12.792969	458.398437
6296.420935	0.930315	10.233462	-0.031126
6297.479003	0.869852	-129.980469	10.449219
6297.483003	0.930487	-129.980469	10.449219
6297.485005	0.928744	10.216181	0.347554
6298.503544	0.816663	-12.207031	450.781250
6298.505547	0.934900	-12.207031	450.781250
6298.507546	0.931938	10.251321	-0.032046
6299.565615	0.467681	-134.277344	9.179687
6299.567617	0.764350	-134.277344	9.179687
6299.571616	0.932754	-134.277344	9.179687
6299.573617	0.930552	10.236068	-0.006601
6300.592596	1.516240	-14.257812	464.160156
6300.594598	0.675760	-14.257812	464.160156
6300.596597	0.912649	-14.257812	464.160156
6300.598598	0.933847	-14.257812	464.160156
6300.600597	0.931269	10.243956	-0.030656
6301.658639	0.691779	-131.152344	9.960937
6301.660640	0.917468	-131.152344	9.960937
6301.662641	0.932325	-131.152344	9.960937
6301.664641	0.929945	10.229395	-0.000236
6302.682686	0.545694	-14.257812	477.050781
6302.684685	0.835379	-14.257812	477.050781
6302.686686	0.935705	-14.257812	477.050781
6302.688686	0.932538	10.257914	0.053250
6303.746686	0.555665	-134.863281	9.960937
6303.748689	0.843186	-134.863281	9.960937
6303.750689	0.935325	-134.863281	9.960937
6303.752688	0.932144	10.253580	0.128192
6304.771615	0.308223	-13.671875	462.402344
6304.773616	0.610063	-13.671875	462.402344
6304.775617	0.879986	-13.671875	462.402344
6304.777618	0.933501	-13.671875	462.402344
6304.781615	0.928916	10.218078	-0.035222
6305.837696	0.480571	-133.007812	11.035156
6305.839695	0.776914	-133.007812	11.035156
6305.841696	0.934347	-133.007812	11.035156
6305.843696	0.932985	10.262833	-0.001811
6306.866231	0.468707	-15.234375	467.382812
6306.868232	0.765399	-15.234375	467.382812
6306.870233	0.933135	-15.234375	467.382812
6306.872233	0.932752	10.260271	-0.018708
6307.926253	0.650015	-133.496094	11.328125
6307.930253	0.934753	-133.496094	11.328125
6307.934254	0.930359	-133.496094	11.328125
6307.936257	0.929196	10.221152	-0.013031
6308.956777	0.400063	-15.527344	465.917969
6308.958778	0.698433	-15.527344	465.917969
6308.960781	0.919516	-15.527344	465.917969
6308.962779	0.932330	-15.527344	465.917969
6308.964779	0.929979	10.229767	-0.024221
6310.014796	0.587486	-127.050781	12.890625
6310.016797	0.865885	-127.050781	12.890625
6310.020796	0.931317	-127.050781	12.890625
6310.022798	0.929558	10.225142	0.298882
6311.054816	0.934615	-16.503906	465.527344
6311.056819	0.931543	-16.503906	465.527344
6311.058818	0.929707	10.226781	0.065969
6312.100868	0.538766	-129.785156	12.695312
6312.102870	0.829425	-129.785156	12.695312
6312.106868	0.931914	-129.785156	12.695312
6312.108870	0.930117	10.231282	-0.006264
6313.141427	0.332971	-18.457031	486.230469
6313.143428	0.633673	-18.457031	486.230469
6313.145427	0.893108	-18.457031	486.230469
6313.147432	0.933309	-18.457031	486.230469
6313.149432	0.930577	10.236342	-0.017418
6314.189966	0.634287	-122.656250	14.746094
6314.191969	0.893455	-122.656250	14.746094
6314.193968	0.933377	-122.656250	14.746094
6314.195969	0.930645	10.237096	-0.021601
6315.233993	0.413672	-20.800781	491.210937
6315.235994	0.423839	-20.800781	491.210937
6315.237995	0.923788	-20.800781	491.210937
6315.239995	0.932887	-20.800781	491.210937
6315.243993	0.929077	10.219850	-0.011332
6316.278571	0.658807	-121.093750	13.476562
6316.280574	0.904943	-121.093750	13.476562
6316.282574	0.932728	-121.093750	13.476562
6316.284575	0.930243	10.232674	-0.029734
6317.326587	2.186783	-23.925781	484.667969
6317.328588	0.794079	-23.925781	484.667969
6317.330589	0.935104	-23.925781	484.667969
6317.332588	0.932787	10.260653	-0.010008
6318.368628	0.744023	-123.339844	11.035156
6318.370631	0.929811	-123.339844	11.035156
6318.372631	0.931925	-123.339844	11.035156
6318.374632	0.929673	10.226408	-0.020663
6319.418698	0.584972	-25.976562	503.125000
6319.420699	0.863827	-25.976562	503.125000
6319.422698	0.933359	-25.976562	503.125000
6319.424699	0.930299	10.233294	-0.008015
6320.455216	0.390049	-121.582031	9.375000
6320.457218	0.688760	-121.582031	9.375000
6320.459216	0.916539	-121.582031	9.375000
6320.461218	0.932625	-121.582031	9.375000
6320.463218	0.930165	10.231814	-0.030460
6321.507239	1.182739	-29.589844	499.218750
6321.509241	0.743177	-29.589844	499.218750
6321.511242	0.930585	-29.589844	499.218750
6321.513238	0.933007	-29.589844	499.218750
6321.515241	0.930654	10.237194	0.000919
6322.547267	0.543792	-122.070312	7.617187
6322.549269	0.833795	-122.070312	7.617187
6322.551268	0.936423	-122.070312	7.617187
6322.553267	0.933286	10.266147	0.047701
6323.597317	0.535992	-31.152344	501.171875
6323.599316	0.827205	-31.152344	501.171875
6323.601316	0.935341	-31.152344	501.171875
6323.603317	0.932204	10.254245	0.028673
6324.637335	0.405902	-120.019531	7.128906
6324.639338	0.704066	-120.019531	7.128906
6324.641337	0.921539	-120.019531	7.128906
6324.643337	0.932769	-120.019531	7.128906
6324.645338	0.932671	10.259385	-0.026153
6325.687385	0.548606	-32.519531	503.808594
6325.689387	0.837477	-32.519531	503.808594
6325.691388	0.934771	-32.519531	503.808594
6325.693388	0.931531	10.246845	0.095232
6326.727454	0.348191	-123.730469	5.273437
6326.729456	0.648309	-123.730469	5.273437
6326.731454	0.900157	-123.730469	5.273437
6326.733454	0.902925	-123.730469	5.273437
6326.735454	0.930066	10.230724	-0.029284
6327.775588	0.513170	-32.519531	510.449219
6327.777589	0.807205	-32.519531	510.449219
6327.779589	0.934675	-32.519531	510.449219
6327.781589	0.931937	10.251311	-0.004400
6328.823602	0.907921	-124.121094	5.273437
6328.825603	0.932347	-124.121094	5.273437
6328.827602	0.929835	10.228181	-0.023786
6329.864538	0.436359	-32.519531	503.417969
6329.866540	0.733673	-32.519531	503.417969
6329.868541	0.928072	-32.519531	503.417969
6329.870541	0.932020	-32.519531	503.417969
6329.872541	0.929869	10.228561	-0.008733
6330.910566	0.590520	-125.488281	4.882812
6330.912566	0.867463	-125.488281	4.882812
6330.914566	0.933182	-125.488281	4.882812
6330.916567	0.930186	10.232044	-0.021708
6331.957144	0.630932	-34.960937	514.941406
6331.959147	0.934955	-34.960937	514.941406
6331.961147	0.931995	10.251949	-0.001923
6333.001709	0.533211	-124.218750	5.664062
6333.003710	0.824799	-124.218750	5.664062
6333.005711	0.935380	-124.218750	5.664062
6333.007711	0.932305	10.255353	-0.010680
6334.047786	0.839116	-34.179687	515.136719
6334.049790	0.934805	-34.179687	515.136719
6334.051789	0.931576	10.247333	0.088012
6335.092369	0.784202	-126.562500	5.078125
6335.094370	0.933404	-126.562500	5.078125
6335.098367	0.929512	10.224627	-0.028299
6336.135335	0.486733	-32.812500	509.179687
6336.137338	0.782686	-32.812500	509.179687
6336.139338	0.934669	-32.812500	509.179687
6336.141338	0.932973	10.262699	-0.009497
6337.181377	0.717060	-126.171875	5.273437
6337.183380	0.924175	-126.171875	5.273437
6337.185380	0.931660	-126.171875	5.273437
6337.187380	0.929483	10.224317	-0.029412
6338.227926	0.492303	-32.519531	507.812500
6338.229928	0.787981	-32.519531	507.812500
6338.231928	0.934064	-32.519531	507.812500
6338.233929	0.932031	10.252339	-0.007460
6339.269943	0.584591	-126.953125	5.664062
6339.271946	0.863576	-126.953125	5.664062
6339.273946	0.933438	-126.953125	5.664062
6339.275948	0.930360	10.233959	-0.030021
6340.320485	0.796262	-32.910156	512.988281
6340.322487	0.934143	-32.910156	512.988281
6340.324487	0.931666	10.248325	-0.002071
6341.360549	0.822466	-126.171875	6.933594
6341.362550	0.935131	-126.171875	6.933594
6341.364551	0.932007	10.252083	-0.023778
6342.409102	0.443144	-32.031250	508.789062
6342.411105	0.740317	-32.031250	508.789062
6342.413105	0.929860	-32.031250	508.789062
6342.415104	0.932744	-32.031250	508.789062
6342.417103	0.930416	10.234571	-0.005754
6343.449154	0.546132	-125.488281	8.984375
6343.451155	0.835535	-125.488281	8.984375
6343.453155	0.935527	-125.488281	8.984375
6343.457153	0.930453	10.234987	0.057370
6344.499236	0.389974	-30.957031	510.546875
6344.501242	0.688560	-30.957031	510.546875
6344.503239	0.916456	-30.957031	510.546875
6344.505239	0.932493	-30.957031	510.546875
6344.507238	0.932403	10.256433	-0.002552
6345.539292	0.568730	-126.953125	10.937500
6345.541292	0.852951	-126.953125	10.937500
6345.543293	0.935436	-126.953125	10.937500
6345.545293	0.932140	10.253536	0.187397
6346.589348	0.561046	-29.003906	518.164062
6346.591348	0.847002	-29.003906	518.164062
6346.593349	0.934260	-29.003906	518.164062
6346.595348	0.931082	10.241899	0.167077
6347.629915	0.358545	-131.738281	12.109375
6347.631916	0.658107	-131.738281	12.109375
6347.633916	0.904264	-131.738281	12.109375
6347.635916	0.932020	-131.738281	12.109375
6347.637917	0.929509	10.224600	-0.019248
6348.677954	0.432464	-26.953125	517.871094
6348.679956	0.729912	-26.953125	517.871094
6348.681956	0.927612	-26.953125	517.871094
6348.683956	0.932397	-26.953125	517.871094
6348.685958	0.930152	10.231672	-0.013381
6349.722504	0.596004	-137.500000	11.718750
6349.724506	0.871099	-137.500000	11.718750
6349.726506	0.933265	-137.500000	11.718750
6349.728505	0.930256	10.232816	-0.018680
6350.767492	0.595619	-24.609375	514.062500
6350.769494	0.870959	-24.609375	514.062500
6350.771493	0.933656	-24.609375	514.062500
6350.773494	0.930670	10.237370	0.329417
6351.814406	0.576237	-134.472656	13.574219
6351.816408	0.857878	-134.472656	13.574219
6351.818409	0.933628	-134.472656	13.574219
6351.820409	0.930547	10.236015	-0.012314
6352.854411	0.442332	-22.656250	516.113281
6352.856413	0.739443	-22.656250	516.113281
6352.858415	0.928790	-22.656250	516.113281
6352.860416	0.931582	-22.656250	516.113281
6352.862418	0.929371	10.223076	-0.016259
6353.905328	0.486242	-141.015625	12.109375
6353.907330	0.782073	-141.015625	12.109375
6353.909329	0.933180	-141.015625	12.109375
6353.911328	0.931463	10.246092	-0.010420
6354.941326	0.285804	-21.972656	518.652344
6354.943327	0.588539	-21.972656	518.652344
6354.945325	0.866331	-21.972656	518.652344
6354.947328	0.933862	-21.972656	518.652344
6354.949325	0.933753	10.271287	-0.024859
6355.997341	0.484721	-141.210937	12.109375
6355.999344	0.780663	-141.210937	12.109375
6356.001344	0.933237	-141.210937	12.109375
6356.003344	0.931543	10.246978	0.000344
6357.031913	0.533149	-20.410156	501.464844
6357.035914	0.934730	-20.410156	501.464844
6357.037914	0.931758	-20.410156	501.464844
6357.039915	0.929847	10.228313	-0.011967
6358.087973	0.350287	-141.308594	12.890625
6358.089976	0.650183	-141.308594	12.890625
6358.095974	0.929769	-141.308594	12.890625
6358.097976	0.928089	-141.308594	12.890625
6358.099976	0.926733	10.194060	0.000925
6359.120004	0.479976	-21.093750	519.042969
6359.122007	0.776136	-21.093750	519.042969
6359.124006	0.932549	-21.093750	519.042969
6359.126006	0.931250	10.243752	-0.025399
6360.180982	0.572440	-139.257812	12.402344
6360.182985	0.855304	-139.257812	12.402344
6360.184984	0.933971	-139.257812	12.402344
6360.186984	0.930831	10.239143	-0.002160
6361.209018	0.331760	-21.289062	510.058594
6361.211020	0.632454	-21.289062	510.058594
6361.213019	0.892280	-21.289062	510.058594
6361.217018	0.930317	-21.289062	510.058594
6361.219019	0.928533	10.213868	-0.016942
6362.273035	0.800755	-146.582031	11.523437
6362.275037	0.933904	-146.582031	11.523437
6362.277038	0.931456	10.246020	0.000927
6363.299587	0.498500	-20.703125	505.664062
6363.301591	0.793703	-20.703125	505.664062
6363.303593	0.934770	-20.703125	505.664062
6363.305596	0.932467	10.257134	-0.025638
6364.361602	0.594914	-145.703125	11.425781
6364.363604	0.870469	-145.703125	11.425781
6364.365604	0.933598	-145.703125	11.425781
6364.367605	0.930531	10.235838	0.349815
6365.390519	0.412526	-21.289062	510.546875
6365.392523	0.710368	-21.289062	510.546875
6365.394523	0.922557	-21.289062	510.546875
6365.396523	0.931812	-21.289062	510.546875
6365.398523	0.929467	10.224140	-0.022934
6366.450530	0.512339	-147.460937	11.523437
6366.452533	0.525817	-147.460937	11.523437
6366.454531	0.934826	-147.460937	11.523437
6366.456533	0.932132	10.253456	0.003308
6367.481072	0.419458	-22.656250	525.097656
6367.483072	0.717127	-22.656250	525.097656
6367.485074	0.924309	-22.656250	525.097656
6367.487074	0.931867	-22.656250	525.097656
6367.489075	0.929576	10.225336	-0.024704
6368.541980	0.803662	-146.582031	12.207031
6368.543982	0.933948	-146.582031	12.207031
6368.545982	0.931281	10.244089	-0.001789
6369.572568	0.494110	-22.656250	522.851562
6369.574571	0.789660	-22.656250	522.851562
6369.576573	0.934801	-22.656250	522.851562
6369.578572	0.935033	10.285360	-0.019713
6370.627131	0.311430	-143.457031	13.281250
6370.629131	0.612994	-143.457031	13.281250
6370.631135	0.881858	-143.457031	13.281250
6370.633137	0.933268	-143.457031	13.281250
6370.635136	0.930344	10.233782	0.003319
6371.665161	1.684420	-23.437500	516.503906
6371.667164	0.856518	-23.437500	516.503906
6371.669162	0.933525	-23.437500	516.503906
6371.671163	0.930381	10.234190	0.222234
6372.721201	0.933681	-139.941406	13.476562
6372.723210	0.932259	-139.941406	13.476562
6372.725205	0.930198	10.232178	-0.008192
6373.759233	0.860559	-24.511719	526.757812
6373.763231	0.930740	-24.511719	526.757812
6373.765234	0.928950	10.218451	0.256788
6374.805818	0.582990	-144.921875	12.695312
6374.807819	0.862488	-144.921875	12.695312
6374.809818	0.933470	-144.921875	12.695312
6374.811819	0.930440	10.234837	-0.014097
6375.850781	0.724087	-27.050781	520.410156
6375.852783	0.934405	-27.050781	520.410156
6375.854784	0.931825	10.250079	-0.016307
6376.894855	0.671352	-141.113281	12.304687
6376.896856	0.909778	-141.113281	12.304687
6376.898858	0.932057	-141.113281	12.304687
6376.900858	0.929562	10.225185	-0.011949
6377.942935	0.818139	-29.492187	527.148437
6377.944935	0.822214	-29.492187	527.148437
6377.946937	0.931165	10.242812	-0.004353
6378.983011	0.628022	-140.039062	11.816406
6378.985014	0.889713	-140.039062	11.816406
6378.987012	0.932663	-140.039062	11.816406
6378.989014	0.929906	10.228970	-0.014072
6380.031540	0.312540	-32.910156	531.835937
6380.033542	0.614059	-32.910156	531.835937
6380.035542	0.882201	-32.910156	531.835937
6380.037541	0.933437	-32.910156	531.835937
6380.039540	0.930575	10.236325	-0.004581
6381.071624	0.500416	-134.863281	10.742187
6381.073626	0.795517	-134.863281	10.742187
6381.075626	0.934696	-134.863281	10.742187
6381.077626	0.932331	10.255636	-0.020153
6382.123673	0.560537	-34.960937	534.667969
6382.125673	0.846593	-34.960937	534.667969
6382.127675	0.934064	-34.960937	534.667969
6382.129676	0.933906	10.272971	-0.004814
6383.159675	0.284436	-138.476562	8.886719
6383.161677	0.587162	-138.476562	8.886719
6383.163678	0.865191	-138.476562	8.886719
6383.167675	0.930189	-138.476562	8.886719
6383.169678	0.928313	10.211449	-0.029592
6384.212267	0.349964	-36.328125	538.671875
6384.214268	0.649907	-36.328125	538.671875
6384.216269	0.900992	-36.328125	538.671875
6384.218268	0.932975	-36.328125	538.671875
6384.220270	0.930425	10.234676	-0.001179
6385.250353	0.311034	-136.914062	7.519531
6385.252355	0.612490	-136.914062	7.519531
6385.254355	0.881149	-136.914062	7.519531
6385.256354	0.933002	-136.914062	7.519531
6385.258355	0.930183	10.232018	-0.029138
6386.302338	0.362687	-39.746094	550.683594
6386.304337	0.662220	-39.746094	550.683594
6386.306337	0.906118	-39.746094	550.683594
6386.308337	0.908609	-39.746094	550.683594
6386.310337	0.929781	10.227596	0.003783
6387.340373	0.315774	-135.546875	7.128906
6387.342375	0.617153	-135.546875	7.128906
6387.344377	0.883710	-135.546875	7.128906
6387.346375	0.932666	-135.546875	7.128906
6387.348375	0.929872	10.228588	-0.021602
6388.392385	0.448586	-39.062500	538.574219
6388.394399	0.745541	-39.062500	538.574219
6388.398398	0.934334	-39.062500	538.574219
6388.400401	0.931982	-39.062500	538.574219
6388.402400	0.930462	10.235085	-0.000899
6389.432448	0.401888	-137.792969	5.859375
6389.434451	0.413267	-137.792969	5.859375
6389.436451	0.919715	-137.792969	5.859375
6389.438450	0.931999	-137.792969	5.859375
6389.440449	0.929644	10.226081	-0.028394
6390.481387	0.455476	-39.648437	542.089844
6390.483390	0.752208	-39.648437	542.089844
6390.485390	0.931226	-39.648437	542.089844
6390.487390	0.932155	-39.648437	542.089844
6390.489390	0.930045	10.230494	-0.000145
6391.523432	0.398051	-139.355469	4.296875
6391.525433	0.696289	-139.355469	4.296875
6391.527432	0.918712	-139.355469	4.296875
6391.529433	0.932136	-139.355469	4.296875
6391.531432	0.929752	10.227268	-0.024246
6392.572394	0.684559	-42.480469	560.937500
6392.574393	0.914597	-42.480469	560.937500
6392.576394	0.931829	-42.480469	560.937500
6392.578394	0.929406	10.223466	-0.005173
6393.614423	0.473319	-141.210937	4.101562
6393.616425	0.769629	-141.210937	4.101562
6393.618426	0.932728	-141.210937	4.101562
6393.620425	0.931856	10.250417	-0.022097
6394.660444	0.396821	-41.113281	553.515625
6394.662446	0.695078	-41.113281	553.515625
6394.664445	0.918491	-41.113281	553.515625
6394.666445	0.932401	-41.113281	553.515625
6394.668446	0.930034	10.230370	-0.002795
6395.704477	0.483124	-134.277344	6.738281
6395.706480	0.779135	-134.277344	6.738281
6395.708479	0.932899	-134.277344	6.738281
6395.710480	0.931286	10.244150	-0.027588
6396.750529	0.411452	-41.015625	544.531250
6396.752528	0.709350	-41.015625	544.531250
6396.754529	0.922340	-41.015625	544.531250
6396.756526	0.923845	-41.015625	544.531250
6396.758530	0.929632	10.225947	-0.003642
6397.792580	0.274407	-139.941406	4.980469
6397.794582	0.577567	-139.941406	4.980469
6397.796581	0.858718	-139.941406	4.980469
6397.798582	0.933330	-139.941406	4.980469
6397.800580	0.930266	10.232923	-0.018152
6398.841128	0.349504	-40.429687	548.730469
6398.843131	0.649428	-40.429687	548.730469
6398.845131	0.900551	-40.429687	548.730469
6398.847132	0.932631	-40.429687	548.730469
6398.849130	0.930021	10.230228	0.001784
6399.883134	0.360633	-139.453125	5.761719
6399.885135	0.660110	-139.453125	5.761719
6399.887135	0.905139	-139.453125	5.761719
6399.889135	0.932145	-139.453125	5.761719
6399.891136	0.929663	10.226293	-0.017221
6400.931664	0.275432	-40.332031	554.980469
6400.933667	0.578551	-40.332031	554.980469
6400.935666	0.859280	-40.332031	554.980469
6400.937667	0.933043	-40.332031	554.980469
6400.939668	0.930048	10.230529	0.003845
6401.973730	0.529810	-136.816406	6.835937
6401.975733	0.821578	-136.816406	6.835937
6401.977734	0.933774	-136.816406	6.835937
6401.979733	0.930857	10.239427	-0.019709
6403.023768	0.444556	-41.796875	569.433594
6403.025768	0.741424	-41.796875	569.433594
6403.027770	0.929083	-41.796875	569.433594
6403.029768	0.931564	-41.796875	569.433594
6403.031769	0.929443	10.223874	-0.003515
6404.061767	0.314928	-136.425781	9.179687
6404.063769	0.616263	-136.425781	9.179687
6404.065770	0.883454	-136.425781	9.179687
6404.067773	0.933396	-136.425781	9.179687
6404.069771	0.930573	10.236299	-0.022276
6405.115781	0.594011	-40.039062	558.007812
6405.117782	0.869984	-40.039062	558.007812
6405.119783	0.933765	-40.039062	558.007812
6405.121788	0.930785	10.238638	0.006179
6406.151838	0.406151	-139.746094	9.765625
6406.153838	0.704180	-139.746094	9.765625
6406.155839	0.920796	-139.746094	9.765625
6406.157840	0.931706	-139.746094	9.765625
6406.159838	0.929383	10.223208	-0.017450
6407.203897	0.391773	-37.890625	555.664062
6407.205895	0.690241	-37.890625	555.664062
6407.207897	0.916971	-37.890625	555.664062
6407.209898	0.932519	-37.890625	555.664062
6407.211898	0.930123	10.231354	0.002889
6408.243936	0.567577	-141.796875	11.328125
6408.245938	0.851731	-141.796875	11.328125
6408.247940	0.934040	-141.796875	11.328125
6408.249939	0.930856	10.239418	0.185861
6409.293975	0.406377	-37.890625	569.140625
6409.295973	0.704390	-37.890625	569.140625
6409.299972	0.932389	-37.890625	569.140625
6409.301973	0.930008	-37.890625	569.140625
6409.303975	0.928409	10.212494	-0.000502
6410.331969	0.272483	-144.140625	11.914062
6410.333969	0.575722	-144.140625	11.914062
6410.335969	0.857453	-144.140625	11.914062
6410.337968	0.933317	-144.140625	11.914062
6410.341966	0.928391	10.212299	-0.012010
6411.384034	0.722173	-35.742187	566.992187
6411.386037	0.925138	-35.742187	566.992187
6411.388035	0.931412	-35.742187	566.992187
6411.390036	0.929144	10.220586	-0.001730
6412.424579	0.441861	-144.726562	14.062500
6412.426579	0.481575	-144.726562	14.062500
6412.428580	0.928730	-144.726562	14.062500
6412.430580	0.931724	-144.726562	14.062500
6412.432579	0.929518	10.224698	-0.011943
6413.472635	0.516044	-32.714844	554.394531
6413.474637	0.809650	-32.714844	554.394531
6413.476639	0.934374	-32.714844	554.394531
6413.478636	0.931528	10.246809	-0.003149
6414.516669	0.450389	-153.320312	12.890625
6414.518675	0.490634	-153.320312	12.890625
6414.520672	0.931684	-153.320312	12.890625
6414.522671	0.933603	-153.320312	12.890625
6414.524673	0.931312	10.244434	-0.011642
6415.560666	0.452941	-33.007812	563.964844
6415.562685	0.749682	-33.007812	563.964844
6415.564684	0.930327	-33.007812	563.964844
6415.566685	0.931229	-33.007812	563.964844
6415.568686	0.931122	10.242343	-0.003432
6416.609680	0.595767	-155.468750	13.183594
6416.611683	0.870574	-155.468750	13.183594
6416.613686	0.932516	-155.468750	13.183594
6416.615682	0.929571	10.225283	-0.003837
6417.649687	0.539317	-30.273437	554.003906
6417.651690	0.829661	-30.273437	554.003906
6417.655687	0.931759	-30.273437	554.003906
6417.657690	0.929892	10.228810	0.042771
6418.703738	0.816182	-151.367187	14.550781
6418.705740	0.933753	-151.367187	14.550781
6418.707739	0.930813	10.238949	0.000603
6419.737816	0.492083	-29.882812	558.984375
6419.739818	0.787567	-29.882812	558.984375
6419.741817	0.933703	-29.882812	558.984375
6419.743818	0.931635	10.247988	-0.013245
6420.793888	0.693892	-153.125000	13.085937
6420.797888	0.931648	-153.125000	13.085937
6420.799888	0.929395	-153.125000	13.085937
6420.801889	0.927747	10.205218	0.003664
6421.827915	0.662674	-29.296875	550.292969
6421.829919	0.906167	-29.296875	550.292969
6421.831921	0.931998	-29.296875	550.292969
6421.833925	0.929533	10.224866	-0.017007
6422.883976	0.633697	-158.691406	11.816406
6422.885977	0.892386	-158.691406	11.816406
6422.887977	0.931942	-158.691406	11.816406
6422.889976	0.929217	10.221383	0.005123
6423.916517	0.379954	-30.664062	558.300781
6423.918520	0.678786	-30.664062	558.300781
6423.920521	0.912722	-30.664062	558.300781
6423.922519	0.932135	-30.664062	558.300781
6423.924518	0.929675	10.226426	-0.009360
6424.974541	0.792655	-160.351562	12.011719
6424.976543	0.933024	-160.351562	12.011719
6424.978543	0.930784	10.238629	0.014623
6426.009088	0.832752	-30.371094	560.156250
6426.011092	0.934152	-30.371094	560.156250
6426.013090	0.931042	10.241466	0.063856
6427.065624	0.579849	-162.402344	12.304687
6427.067625	0.860182	-162.402344	12.304687
6427.069626	0.933276	-162.402344	12.304687
6427.073624	0.928372	10.212087	0.001651
6428.096188	0.642005	-29.101562	556.640625
6428.098189	0.896645	-29.101562	556.640625
6428.100190	0.931977	-29.101562	556.640625
6428.102190	0.929358	10.222943	-0.015897
6429.154205	0.368789	-158.984375	13.183594
6429.158204	0.908283	-158.984375	13.183594
6429.160208	0.931956	-158.984375	13.183594
6429.162209	0.929545	10.224990	0.009843
6430.186224	0.419562	-30.859375	555.078125
6430.188225	0.717141	-30.859375	555.078125
6430.190225	0.924181	-30.859375	555.078125
6430.192227	0.931647	-30.859375	555.078125
6430.194225	0.929488	10.224370	-0.015901
6431.242247	0.306033	-159.765625	13.085937
6431.244246	0.607689	-159.765625	13.085937
6431.246245	0.878153	-159.765625	13.085937
6431.248245	0.932791	-159.765625	13.085937
6431.250246	0.929914	10.229058	0.010644
6432.276276	0.271859	-31.250000	565.234375
6432.278276	0.575014	-31.250000	565.234375
6432.280278	0.856829	-31.250000	565.234375
6432.282278	0.860506	-31.250000	565.234375
6432.284277	0.930257	10.232824	-0.008013
6433.332302	0.395774	-155.957031	14.160156
6433.336301	0.700236	-155.957031	14.160156
6433.338305	0.931895	-155.957031	14.160156
6433.340303	0.929593	10.225522	0.003211
6434.370356	0.659059	-32.324219	559.082031
6434.372358	0.904752	-32.324219	559.082031
6434.374356	0.932287	-32.324219	559.082031
6434.376357	0.929744	10.227180	0.699394
6435.420384	0.494341	-156.640625	13.964844
6435.422387	0.789751	-156.640625	13.964844
6435.424388	0.934214	-156.640625	13.964844
6435.426387	0.932099	10.253093	-0.000790
6436.460413	0.362076	-34.570312	572.167969
6436.462415	0.375360	-34.570312	572.167969
6436.464415	0.905916	-34.570312	572.167969
6436.466415	0.932629	-34.570312	572.167969
6436.468415	0.930086	10.230946	-0.004085
6437.510505	0.589845	-154.394531	13.671875
6437.512506	0.867208	-154.394531	13.671875
6437.514508	0.933854	-154.394531	13.671875
6437.516506	0.930797	10.238771	0.311276
6438.552537	0.453942	-36.523437	573.730469
6438.554544	0.750610	-36.523437	573.730469
6438.556541	0.930134	-36.523437	573.730469
6438.558542	0.931095	-36.523437	573.730469
6438.560542	0.928960	10.218556	-0.000429
6439.598618	0.539874	-158.203125	12.304687
6439.600622	0.830166	-158.203125	12.304687
6439.602622	0.934811	-158.203125	12.304687
6439.604621	0.931632	10.247952	0.049403
6440.645141	0.385671	-37.695312	577.148437
6440.647143	0.684225	-37.695312	577.148437
6440.649142	0.915375	-37.695312	577.148437
6440.651145	0.933246	-37.695312	577.148437
6440.653143	0.930710	10.237814	-0.002462
6441.687166	0.553238	-153.613281	12.792969
6441.689170	0.840900	-153.613281	12.792969
6441.691170	0.934095	-153.613281	12.792969
6441.693169	0.930972	10.240694	0.111959
6442.737178	0.766564	-39.160156	573.144531
6442.739179	0.931489	-39.160156	573.144531
6442.741178	0.930923	10.240153	0.003999
6443.775243	0.423808	-153.125000	11.621094
6443.777245	0.721218	-153.125000	11.621094
6443.779244	0.925258	-153.125000	11.621094
6443.781245	0.931804	-153.125000	11.621094
6443.783245	0.929557	10.225123	-0.008297
6444.827289	0.557658	-43.164062	589.843750
6444.829290	0.844195	-43.164062	589.843750
6444.831290	0.933698	-43.164062	589.843750
6444.833290	0.930497	10.235466	0.153017
6445.867279	0.498376	-153.320312	10.449219
6445.869279	0.793441	-153.320312	10.449219
6445.871278	0.933752	-153.320312	10.449219
6445.873279	0.931465	10.246118	-0.016414
6446.915893	0.351520	-44.335937	586.523437
6446.919892	0.901217	-44.335937	586.523437
6446.921894	0.932109	-44.335937	586.523437
6446.923894	0.929570	10.225274	0.009778
6447.953941	0.385988	-149.511719	9.277344
6447.955940	0.684501	-149.511719	9.277344
6447.959942	0.931495	-149.511719	9.277344
6447.961942	0.929101	-149.511719	9.277344
6447.963942	0.927447	10.201913	-0.015455
6449.005969	0.284976	-44.628906	581.250000
6449.007970	0.587609	-44.628906	581.250000
6449.009969	0.865395	-44.628906	581.250000
6449.011970	0.933019	-44.628906	581.250000
6449.013969	0.930038	10.230413	0.006490
6450.044009	0.398748	-152.832031	8.007812
6450.046009	0.425095	-152.832031	8.007812
6450.048009	0.918277	-152.832031	8.007812
6450.050009	0.931285	-152.832031	8.007812
6450.052009	0.928973	10.218707	-0.024083
6451.098959	0.508058	-45.117187	583.496094
6451.100962	0.802308	-45.117187	583.496094
6451.102961	0.934266	-45.117187	583.496094
6451.104961	0.931620	10.247819	0.008102
6452.135023	0.321184	-148.925781	8.886719
6452.137026	0.622200	-148.925781	8.886719
6452.139023	0.886765	-148.925781	8.886719
6452.141023	0.933070	-148.925781	8.886719
6452.143024	0.930280	10.233082	-0.008899
6453.189066	0.755542	-46.484375	581.250000
6453.191066	0.930698	-46.484375	581.250000
6453.193067	0.931190	10.243087	0.004076
6454.229119	0.707188	-152.148437	6.933594
6454.231119	0.921270	-152.148437	6.933594
6454.233121	0.931274	-152.148437	6.933594
6454.235118	0.928969	10.218654	-0.015274
6455.277655	0.702049	-46.777344	590.722656
6455.279657	0.920804	-46.777344	590.722656
6455.281656	0.932734	-46.777344	590.722656
6455.283656	0.930354	10.233897	0.005342
6456.317730	0.427368	-150.488281	8.007812
6456.319733	0.724734	-150.488281	8.007812
6456.321732	0.925802	-150.488281	8.007812
6456.323731	0.931481	-150.488281	8.007812
6456.325734	0.929158	10.220737	-0.005183
6457.367792	0.722786	-48.339844	595.800781
6457.369792	0.925252	-48.339844	595.800781
6457.371793	0.931365	-48.339844	595.800781
6457.373794	0.929126	10.220391	0.010296
6458.406284	0.284782	-148.535156	7.910156
6458.408286	0.587358	-148.535156	7.910156
6458.410287	0.865086	-148.535156	7.910156
6458.412286	0.932485	-148.535156	7.910156
6458.414285	0.929572	10.225292	-0.019590
6459.456308	0.430428	-47.753906	586.914062
6459.458311	0.727685	-47.753906	586.914062
6459.460311	0.926336	-47.753906	586.914062
6459.462310	0.931460	-47.753906	586.914062
6459.464311	0.929067	10.219735	0.014645
6460.500345	0.873548	-153.125000	7.128906
6460.502347	0.935311	-153.125000	7.128906
6460.504347	0.932229	10.254519	0.360232
6461.546939	0.603227	-49.218750	600.195312
6461.548944	0.875319	-49.218750	600.195312
6461.550947	0.932492	-49.218750	600.195312
6461.552954	0.929611	10.225717	0.399287
6462.588968	0.466630	-149.609375	8.691406
6462.590971	0.763071	-149.609375	8.691406
6462.592970	0.931538	-149.609375	8.691406
6462.594970	0.931175	10.242928	-0.010039
6463.637049	0.390843	-49.023437	597.265625
6463.639050	0.689147	-49.023437	597.265625
6463.641050	0.915761	-49.023437	597.265625
6463.643050	0.931409	-49.023437	597.265625
6463.645052	0.929022	10.219239	0.015640
6464.679629	0.793981	-154.589844	8.105469
6464.681631	0.932944	-154.589844	8.105469
6464.683630	0.930687	10.237557	-0.012409
6465.730210	0.787589	-48.535156	601.074219
6465.732213	0.932700	-48.535156	601.074219
6465.734211	0.930594	10.236529	0.009878
6466.769164	0.799799	-155.371094	9.765625
6466.773163	0.931253	-155.371094	9.765625
6466.775166	0.929243	10.221676	-0.008575
6467.817693	0.337933	-47.265625	597.265625
6467.819695	0.638217	-47.265625	597.265625
6467.821694	0.895066	-47.265625	597.265625
6467.823695	0.932651	-47.265625	597.265625
6467.829692	0.926838	10.195213	0.016212
6468.859779	0.911630	-160.058594	10.156250
6468.861782	0.931514	-160.058594	10.156250
6468.863783	0.929099	10.220089	-0.015843
6469.908731	0.261255	-46.093750	595.800781
6469.910732	0.565014	-46.093750	595.800781
6469.912732	0.575364	-46.093750	595.800781
6469.914732	0.933197	-46.093750	595.800781
6469.916733	0.930023	10.230254	0.011940
6470.946846	0.463806	-161.914062	11.230469
6470.948847	0.760261	-161.914062	11.230469
6470.950846	0.931534	-161.914062	11.230469
6470.952846	0.931448	10.245923	-0.018667
6472.000838	0.735535	-45.703125	603.613281
6472.002840	0.927849	-45.703125	603.613281
6472.004839	0.931358	-45.703125	603.613281
6472.006839	0.929101	10.220107	0.011722
6473.037413	0.550887	-162.207031	13.378906
6473.041416	0.934230	-162.207031	13.378906
6473.043421	0.931011	-162.207031	13.378906
6473.045420	0.929225	10.221472	-0.005150
6474.089982	0.611474	-44.335937	608.300781
6474.091980	0.880151	-44.335937	608.300781
6474.093981	0.932365	-44.335937	608.300781
6474.095981	0.929510	10.224609	0.005561
6475.128026	0.413816	-158.300781	15.332031
6475.130026	0.711442	-158.300781	15.332031
6475.132026	0.922611	-158.300781	15.332031
6475.134026	0.931585	-158.300781	15.332031
6475.136026	0.929214	10.221356	-0.002445
6476.178101	0.562250	-43.164062	604.101562
6476.180101	0.847632	-43.164062	604.101562
6476.182104	0.933546	-43.164062	604.101562
6476.184105	0.930472	10.235191	0.009193
6477.222671	0.800920	-167.675781	14.160156
6477.224672	0.932893	-167.675781	14.160156
6477.226672	0.930334	10.233676	0.002936
6478.267236	0.512555	-41.894531	608.886719
6478.269239	0.806400	-41.894531	608.886719
6478.271237	0.933928	-41.894531	608.886719
6478.273238	0.931184	10.243025	0.003076
6479.311297	0.526416	-165.234375	15.917969
6479.313299	0.818713	-165.234375	15.917969
6479.315299	0.934528	-165.234375	15.917969
6479.317298	0.931504	10.246544	0.007858
6480.357353	0.684838	-40.429687	604.492187
6480.359354	0.914674	-40.429687	604.492187
6480.361354	0.931746	-40.429687	604.492187
6480.363354	0.929297	10.222269	0.002613
6481.403899	0.611138	-166.894531	15.625000
6481.405900	0.880240	-166.894531	15.625000
6481.407899	0.932967	-166.894531	15.625000
6481.409900	0.930147	10.231620	0.009275
6482.443949	0.485387	-38.476562	599.218750
6482.445951	0.781281	-38.476562	599.218750
6482.447950	0.933358	-38.476562	599.218750
6482.449951	0.931687	10.248555	0.002788
6483.493959	0.393266	-169.824219	15.234375
6483.495963	0.691514	-169.824219	15.234375
6483.497961	0.916847	-169.824219	15.234375
6483.499961	0.931630	-169.824219	15.234375
6483.501961	0.929208	10.221286	0.015851
6484.531993	1.853966	-38.476562	601.074219
6484.533995	0.569783	-38.476562	601.074219
6484.535995	0.852923	-38.476562	601.074219
6484.537996	0.932499	-38.476562	601.074219
6484.539996	0.929423	10.223652	0.002763
6485.586059	0.555564	-168.261719	16.308594
6485.588063	0.842545	-168.261719	16.308594
6485.590060	0.933900	-168.261719	16.308594
6485.592060	0.930804	10.238842	0.154853
6486.622107	0.367174	-37.988281	603.320312
6486.624108	0.666276	-37.988281	603.320312
6486.626112	0.907794	-37.988281	603.320312
6486.628115	0.932229	-37.988281	603.320312
6486.630116	0.929790	10.227694	-0.005303
6487.674168	0.352282	-173.730469	14.648437
6487.676170	0.651946	-173.730469	14.648437
6487.678170	0.901299	-173.730469	14.648437
6487.680170	0.931819	-173.730469	14.648437
6487.682169	0.929279	10.222066	0.019693
6488.714191	1.801379	-38.183594	609.179687
6488.716193	0.876295	-38.183594	609.179687
6488.718192	0.933044	-38.183594	609.179687
6488.720193	0.930141	10.231548	0.393388
6489.766199	0.580426	-176.171875	15.234375
6489.768199	0.860564	-176.171875	15.234375
6489.770199	0.933208	-176.171875	15.234375
6489.772198	0.930172	10.231894	0.283740
6490.802237	0.391894	-39.746094	613.574219
6490.804238	0.690191	-39.746094	613.574219
6490.808237	0.931481	-39.746094	613.574219
6490.810238	0.929087	-39.746094	613.574219
6490.812238	0.927404	10.201443	-0.003158
6491.855201	0.512171	-172.656250	15.527344
6491.859201	0.934577	-172.656250	15.527344
6491.861204	0.931854	-172.656250	15.527344
6491.865201	0.928486	10.213346	0.014266
6492.895248	0.536995	-40.136719	606.250000
6492.897249	0.827687	-40.136719	606.250000
6492.899249	0.934344	-40.136719	606.250000
6492.903249	0.929392	10.223307	0.033019
6493.945285	0.603562	-177.050781	14.843750
6493.947287	0.875410	-177.050781	14.843750
6493.949288	0.932318	-177.050781	14.843750
6493.951288	0.929456	10.224015	0.405330
6494.982809	2.149189	-41.796875	614.746094
6494.990069	0.927115	-41.796875	614.746094
6494.992070	0.928248	-41.796875	614.746094
6494.994070	0.929164	10.220798	0.003183
6496.032077	0.274628	-172.070312	15.039062
6496.034081	0.577690	-172.070312	15.039062
6496.036081	0.858647	-172.070312	15.039062
6496.038080	0.933052	-172.070312	15.039062
6496.040079	0.930032	10.230352	0.016545
6497.080132	0.808033	-43.750000	617.089844
6497.082133	0.933658	-43.750000	617.089844
6497.084134	0.930852	10.239374	-0.000071
6498.122153	0.521191	-169.726562	15.625000
6498.124154	0.814169	-169.726562	15.625000
6498.126155	0.934404	-169.726562	15.625000
6498.128154	0.931594	10.247536	0.007922
6499.168220	0.298702	-43.554687	606.054687
6499.170222	0.600619	-43.554687	606.054687
6499.172222	0.873812	-43.554687	606.054687
6499.176220	0.930291	-43.554687	606.054687
6499.178223	0.928524	10.213761	0.008631
6500.210261	0.394029	-167.871094	14.843750
6500.212265	0.692317	-167.871094	14.843750
6500.214265	0.917214	-167.871094	14.843750
6500.216265	0.931722	-167.871094	14.843750
6500.218266	0.929290	10.222190	0.005372
6501.262338	0.689205	-47.070312	615.820312
6501.264339	0.916146	-47.070312	615.820312
6501.266339	0.931807	-47.070312	615.820312
6501.268339	0.929376	10.223138	0.013653
6502.300878	0.643970	-164.843750	14.453125
6502.302880	0.897550	-164.843750	14.453125
6502.304881	0.931927	-164.843750	14.453125
6502.306879	0.929425	10.223679	-0.002054
6503.350933	0.482361	-47.656250	609.179687
6503.352933	0.778209	-47.656250	609.179687
6503.354933	0.933366	-47.656250	609.179687
6503.356933	0.931947	10.251417	0.017556
6504.388946	1.326339	-168.066406	13.281250
6504.390947	0.731006	-168.066406	13.281250
6504.392947	0.926650	-168.066406	13.281250
6504.394946	0.930986	-168.066406	13.281250
6504.396948	0.928741	10.216146	0.001772
6505.442996	0.562585	-49.902344	613.769531
6505.445000	0.847957	-49.902344	613.769531
6505.447003	0.933845	-49.902344	613.769531
6505.449004	0.930679	10.237469	0.195401
6506.477076	0.386787	-164.160156	12.109375
6506.479078	0.685204	-164.160156	12.109375
6506.481078	0.914720	-164.160156	12.109375
6506.483079	0.931754	-164.160156	12.109375
6506.485078	0.929391	10.223297	-0.003674
6507.531119	0.439404	-51.953125	612.207031
6507.533121	0.736365	-51.953125	612.207031
6507.535122	0.927665	-51.953125	612.207031
6507.537121	0.930941	-51.953125	612.207031
6507.539122	0.928700	10.215703	0.023198
6508.569147	0.391645	-162.402344	11.328125
6508.571148	0.689947	-162.402344	11.328125
6508.573149	0.916110	-162.402344	11.328125
6508.575149	0.931468	-162.402344	11.328125
6508.577150	0.929070	10.219770	-0.013062
6509.623180	0.518765	-52.929687	610.937500
6509.625183	0.812001	-52.929687	610.937500
6509.627182	0.934186	-52.929687	610.937500
6509.629182	0.931339	10.244726	0.023714
6510.661199	0.841228	-169.824219	8.203125
6510.663201	0.933268	-169.824219	8.203125
6510.665202	0.930237	10.232613	0.121349
6511.711776	0.466125	-54.785156	616.503906
6511.713776	0.762412	-54.785156	616.503906
6511.715777	0.931763	-54.785156	616.503906
6511.717778	0.931549	10.247040	0.023560
6512.752305	0.715599	-167.675781	7.714844
6512.754309	0.923210	-167.675781	7.714844
6512.756308	0.930971	-167.675781	7.714844
6512.758309	0.928666	10.215322	-0.002949
6513.800358	0.329217	-56.738281	620.410156
6513.802360	0.629796	-56.738281	620.410156
6513.804360	0.890467	-56.738281	620.410156
6513.806359	0.932246	-56.738281	620.410156
6513.808360	0.929527	10.224795	0.021037
6514.840374	0.352948	-168.359375	7.031250
6514.842381	0.652611	-168.359375	7.031250
6514.844377	0.901539	-168.359375	7.031250
6514.846379	0.931620	-168.359375	7.031250
6514.848380	0.929122	10.220338	0.000017
6515.890398	0.415731	-53.808594	604.101562
6515.892399	0.713351	-53.808594	604.101562
6515.894401	0.922695	-53.808594	604.101562
6515.896401	0.931047	-53.808594	604.101562
6515.898400	0.928836	10.217200	0.016885
6516.930425	0.362646	-169.628906	6.835937
6516.932426	0.661814	-169.628906	6.835937
6516.934427	0.905561	-169.628906	6.835937
6516.936428	0.931684	-169.628906	6.835937
6516.938429	0.929183	10.221011	0.000537
6517.980459	0.429043	-57.812500	620.898437
6517.982460	0.726230	-57.812500	620.898437
6517.984462	0.925993	-57.812500	620.898437
6517.986462	0.931354	-57.812500	620.898437
6517.990461	0.927494	10.202435	0.019986
6519.020473	0.293851	-171.386719	6.347656
6519.022475	0.595947	-171.386719	6.347656
6519.024475	0.870580	-171.386719	6.347656
6519.026476	0.932337	-171.386719	6.347656
6519.028474	0.929459	10.224051	-0.008045
6520.071031	0.515616	-56.054687	612.207031
6520.073033	0.809085	-56.054687	612.207031
6520.077031	0.931045	-56.054687	612.207031
6520.079034	0.929209	10.221304	0.020171
6521.113041	0.756593	-170.019531	7.226562
6521.115041	0.930934	-170.019531	7.226562
6521.117043	0.932164	10.253801	-0.001171
6522.161605	0.372987	-58.007812	620.703125
6522.163606	0.671847	-58.007812	620.703125
6522.165606	0.909416	-58.007812	620.703125
6522.167607	0.931282	-58.007812	620.703125
6522.169611	0.928840	10.217236	0.021639
6523.202575	0.764906	-166.406250	9.570312
6523.204574	0.931862	-166.406250	9.570312
6523.206575	0.931348	10.244833	-0.005896
6524.252552	0.363935	-57.714844	624.121094
6524.254555	0.663167	-57.714844	624.121094
6524.256555	0.906232	-57.714844	624.121094
6524.258555	0.931824	-57.714844	624.121094
6524.260554	0.929285	10.222136	0.019984
6525.290611	0.475704	-169.628906	9.667969
6525.292613	0.771690	-169.628906	9.667969
6525.294615	0.932970	-169.628906	9.667969
6525.296613	0.931960	10.251559	-0.000859
6526.342640	0.457798	-54.589844	615.625000
6526.344644	0.754365	-54.589844	615.625000
6526.346644	0.930660	-54.589844	615.625000
6526.348643	0.931269	10.243956	0.025055
6527.380721	0.494460	-172.167969	9.960937
6527.384723	0.796514	-172.167969	9.960937
6527.386725	0.931580	-172.167969	9.960937
6527.388725	0.929511	10.224618	0.002087
6528.434769	0.546712	-54.003906	614.453125
6528.436771	0.835675	-54.003906	614.453125
6528.438771	0.840583	-54.003906	614.453125
6528.440771	0.931707	10.248776	0.112555
6529.474797	0.933506	-169.726562	11.718750
6529.476800	0.930503	10.235528	0.290845
6530.522851	0.339504	-53.417969	619.042969
6530.524853	0.639572	-53.417969	619.042969
6530.526854	0.895431	-53.417969	619.042969
6530.530852	0.929420	-53.417969	619.042969
6530.532855	0.927620	10.203818	0.020880
6531.560883	0.523382	-174.316406	12.890625
6531.562886	0.816097	-174.316406	12.890625
6531.564885	0.934439	-174.316406	12.890625
6531.566886	0.931502	10.246516	0.007189
6532.612936	0.355273	-54.101562	626.757812
6532.614938	0.654720	-54.101562	626.757812
6532.616938	0.902466	-54.101562	626.757812
6532.620935	0.929188	-54.101562	626.757812
6532.622938	0.927518	10.202702	0.027184
6533.651046	0.474987	-175.000000	14.550781
6533.653049	0.771067	-175.000000	14.550781
6533.655047	0.932020	-175.000000	14.550781
6533.659047	0.928836	10.217200	0.006766
6534.703128	0.387348	-51.757812	625.097656
6534.705128	0.685726	-51.757812	625.097656
6534.709126	0.931725	-51.757812	625.097656
6534.711131	0.931626	-51.757812	625.097656
6534.713131	0.927720	10.204918	0.024508
6535.743178	0.792149	-177.929687	15.234375
6535.745178	0.932986	-177.929687	15.234375
6535.747179	0.930809	10.238904	0.009365
6536.793256	0.484436	-49.316406	622.460937
6536.795259	0.780166	-49.316406	622.460937
6536.797257	0.933498	-49.316406	622.460937
6536.799258	0.931947	10.251417	0.017065
6537.833344	0.593558	-183.593750	14.843750
6537.835345	0.869171	-183.593750	14.843750
6537.837345	0.932753	-183.593750	14.843750
6537.839344	0.929888	10.228765	0.348588
6538.884283	0.716695	-48.535156	626.660156
6538.886290	0.923364	-48.535156	626.660156
6538.890299	0.928513	-48.535156	626.660156
6538.892301	0.926780	10.194574	0.024190
6539.926308	0.730745	-186.816406	15.429687
6539.928310	0.926636	-186.816406	15.429687
6539.930310	0.931062	-186.816406	15.429687
6539.932310	0.928795	10.216740	0.014035
6540.970927	0.524030	-48.242187	628.515625
6540.972928	0.816542	-48.242187	628.515625
6540.974927	0.934513	-48.242187	628.515625
6540.976927	0.931547	10.247013	0.018516
6542.014960	0.381043	-189.062500	15.625000
6542.016962	0.679654	-189.062500	15.625000
6542.018963	0.912407	-189.062500	15.625000
6542.020962	0.931225	-189.062500	15.625000
6542.022962	0.928829	10.217120	0.020106
6543.059924	0.453769	-48.632812	637.011719
6543.061940	0.750298	-48.632812	637.011719
6543.063939	0.756502	-48.632812	637.011719
6543.065939	0.930892	-48.632812	637.011719
6543.067939	0.928743	10.216172	0.007916
6544.106922	0.600001	-191.992187	15.234375
6544.108924	0.873208	-191.992187	15.234375
6544.112921	0.929537	-191.992187	15.234375
6544.114922	0.927635	10.203986	0.023558
6545.151447	0.682263	-46.386719	625.097656
6545.153450	0.913449	-46.386719	625.097656
6545.155451	0.931386	-46.386719	625.097656
6545.157448	0.928969	10.218662	0.827077
6546.199500	0.827241	-184.863281	16.894531
6546.201501	0.934245	-184.863281	16.894531
6546.203502	0.931168	10.242847	0.056650
6547.239571	0.558093	-48.046875	637.597656
6547.241571	0.844469	-48.046875	637.597656
6547.243572	0.933280	-48.046875	637.597656
6547.245572	0.930169	10.231859	0.164048
6548.286505	0.389543	-189.746094	16.699219
6548.288508	0.687884	-189.746094	16.699219
6548.290506	0.915607	-189.746094	16.699219
6548.292507	0.931658	-189.746094	16.699219
6548.294507	0.929368	10.223049	0.033495
6549.330569	0.480698	-46.582031	637.695312
6549.332569	0.776555	-46.582031	637.695312
6549.334570	0.932808	-46.582031	637.695312
6549.336573	0.931468	10.246153	0.015352
6550.375103	0.333154	-189.843750	16.992187
6550.377105	0.633514	-189.843750	16.992187
6550.379105	0.892561	-189.843750	16.992187
6550.381104	0.932469	-189.843750	16.992187
6550.387103	0.926675	10.193422	0.034997
6551.421159	0.647695	-47.167969	638.476562
6551.423161	0.899248	-47.167969	638.476562
6551.425160	0.931762	-47.167969	638.476562
6551.427159	0.929174	10.220913	0.022241
6552.467737	0.655578	-193.261719	17.089844
6552.469740	0.902718	-193.261719	17.089844
6552.471739	0.931529	-193.261719	17.089844
6552.473738	0.929029	10.219318	0.024840
6553.510705	0.349660	-47.949219	632.031250
6553.512708	0.649343	-47.949219	632.031250
6553.516704	0.931595	-47.949219	632.031250
6553.518707	0.929081	-47.949219	632.031250
6553.520705	0.927329	10.200619	0.015809
6554.554701	0.276733	-189.843750	17.382812
6554.556702	0.579586	-189.843750	17.382812
6554.558701	0.859870	-189.843750	17.382812
6554.560701	0.932660	-189.843750	17.382812
6554.562700	0.929652	10.226170	0.033170
6555.602774	0.588224	-49.804687	641.601562
6555.604777	0.865514	-49.804687	641.601562
6555.606777	0.932280	-49.804687	641.601562
6555.608776	0.929346	10.222801	0.021417
6556.645310	0.524603	-193.261719	16.113281
6556.647314	0.817075	-193.261719	16.113281
6556.649314	0.934499	-193.261719	16.113281
6556.651313	0.931580	10.247385	0.024944
6557.693305	0.591851	-50.976562	632.031250
6557.695304	0.868110	-50.976562	632.031250
6557.697303	0.932775	-50.976562	632.031250
6557.699304	0.929834	10.228172	0.016900
6558.735317	0.605624	-190.136719	16.699219
6558.737319	0.876612	-190.136719	16.699219
6558.739319	0.932374	-190.136719	16.699219
6558.741319	0.929456	10.224015	0.025808
6559.785885	0.746855	-52.929687	640.722656
6559.787886	0.930907	-52.929687	640.722656
6559.789886	0.932616	-52.929687	640.722656
6559.791885	0.930319	10.233507	0.024383
6560.824425	0.627747	-190.234375	15.136719
6560.826427	0.889309	-190.234375	15.136719
6560.828429	0.932094	-190.234375	15.136719
6560.830428	0.929325	10.222580	0.018264
6561.877337	0.510607	-54.882812	638.769531
6561.879339	0.804585	-54.882812	638.769531
6561.883336	0.931249	-54.882812	638.769531
6561.885339	0.929283	10.222110	0.028013
6562.913878	0.775374	-186.035156	15.234375
6562.915880	0.931813	-186.035156	15.234375
6562.917880	0.930550	10.236051	0.021021
6563.968397	0.672004	-56.933594	637.792969
6563.972397	0.931533	-56.933594	637.792969
6563.974400	0.928995	-56.933594	637.792969
6563.976399	0.927252	10.199778	0.023773
6565.001334	0.476838	-184.082031	13.671875
6565.003334	0.772816	-184.082031	13.671875
6565.005336	0.932600	-184.082031	13.671875
6565.007334	0.931483	10.246313	0.011481
6566.057367	0.519373	-59.179687	630.957031
6566.059371	0.812285	-59.179687	630.957031
6566.061370	0.933517	-59.179687	630.957031
6566.063372	0.930726	10.237983	0.038574
6567.091465	0.264920	-180.859375	12.792969
6567.093466	0.568363	-180.859375	12.792969
6567.095466	0.851871	-180.859375	12.792969
6567.097468	0.932642	-180.859375	12.792969
6567.099472	0.929652	10.226170	0.010577
6568.145501	0.317047	-59.082031	626.367187
6568.147502	0.618062	-59.082031	626.367187
6568.149504	0.884058	-59.082031	626.367187
6568.151504	0.932591	-59.082031	626.367187
6568.153503	0.929733	10.227064	0.041126
6569.183520	0.501381	-180.566406	12.402344
6569.185520	0.796116	-180.566406	12.402344
6569.187520	0.933568	-180.566406	12.402344
6569.189521	0.931229	10.243522	0.004941
6570.235573	0.486870	-60.546875	622.851562
6570.237576	0.782471	-60.546875	622.851562
6570.239577	0.932662	-60.546875	622.851562
6570.241576	0.930885	10.239738	0.037790
6571.273596	0.363145	-184.960937	10.351562
6571.277596	0.905763	-184.960937	10.351562
6571.279598	0.931761	-184.960937	10.351562
6571.281598	0.929274	10.222013	0.008609
6572.325675	0.505236	-59.570312	616.503906
6572.327677	0.799765	-59.570312	616.503906
6572.331676	0.931332	-59.570312	616.503906
6572.333678	0.929316	10.222473	0.032773
6573.363742	0.463866	-182.812500	9.863281
6573.365742	0.760204	-182.812500	9.863281
6573.367744	0.931178	-182.812500	9.863281
6573.369743	0.931063	10.241695	0.013463
6574.415819	0.523873	-61.425781	616.406250
6574.417823	0.816307	-61.425781	616.406250
6574.419826	0.933790	-61.425781	616.406250
6574.421831	0.930925	10.240180	0.035446
6575.453883	0.251702	-188.378906	8.105469
6575.455887	0.555890	-188.378906	8.105469
6575.457886	0.842979	-188.378906	8.105469
6575.459887	0.934516	-188.378906	8.105469
6575.461886	0.931343	10.244771	0.006718
6576.503879	0.392540	-62.695312	619.335937
6576.505878	0.690807	-62.695312	619.335937
6576.507880	0.916398	-62.695312	619.335937
6576.509878	0.931287	-62.695312	619.335937
6576.511880	0.928959	10.218547	0.037923
6577.549942	0.922730	-187.500000	8.300781
6577.551942	0.931543	-187.500000	8.300781
6577.553942	0.929267	10.221941	0.019015
6578.594476	0.483944	-63.085937	619.433594
6578.596478	0.779659	-63.085937	619.433594
6578.598477	0.932584	-63.085937	619.433594
6578.600479	0.932793	10.260723	0.046107
6579.636512	0.576432	-189.843750	8.105469
6579.638515	0.857566	-189.843750	8.105469
6579.640515	0.932525	-189.843750	8.105469
6579.642516	0.929561	10.225167	0.258418
6580.686541	1.427932	-62.695312	617.578125
6580.688543	0.850283	-62.695312	617.578125
6580.692542	0.930453	-62.695312	617.578125
6580.694543	0.928650	10.215153	0.219187
6581.724586	0.287994	-186.132812	9.179687
6581.726587	0.590298	-186.132812	9.179687
6581.728587	0.866978	-186.132812	9.179687
6581.730586	0.932423	-186.132812	9.179687
6581.734584	0.927620	10.203818	0.013578
6582.778643	0.800396	-64.648437	626.855469
6582.780644	0.932799	-64.648437	626.855469
6582.782643	0.930241	10.232648	0.039266
6583.813561	0.291498	-191.113281	9.667969
6583.815562	0.593647	-191.113281	9.667969
6583.817562	0.869158	-191.113281	9.667969
6583.819563	0.932581	-191.113281	9.667969
6583.821563	0.929653	10.226177	0.017948
6584.868526	0.561251	-62.695312	622.460937
6584.872527	0.933625	-62.695312	622.460937
6584.874527	0.930552	-62.695312	622.460937
6584.876527	0.928670	10.215374	0.197251
6585.906615	0.749918	-190.527344	10.156250
6585.908610	0.930188	-190.527344	10.156250
6585.910611	0.931197	-190.527344	10.156250
6585.912610	0.928998	10.218982	0.013171
6586.957210	0.444084	-61.718750	622.851562
6586.959211	0.740874	-61.718750	622.851562
6586.961212	0.928777	-61.718750	622.851562
6586.963211	0.931363	-61.718750	622.851562
6586.965210	0.929115	10.220267	0.044964
6587.995242	0.549751	-187.988281	12.890625
6587.997242	0.838008	-187.988281	12.890625
6587.999242	0.934030	-187.988281	12.890625
6588.001242	0.930921	10.240136	0.119160
6589.047272	0.299243	-63.574219	633.496094
6589.049273	0.600954	-63.574219	633.496094
6589.051274	0.873634	-63.574219	633.496094
6589.053274	0.932011	-63.574219	633.496094
6589.055275	0.929089	10.219983	0.039206
6590.083819	0.418003	-191.992187	12.695312
6590.085820	0.715430	-191.992187	12.695312
6590.087819	0.923054	-191.992187	12.695312
6590.089820	0.930853	-191.992187	12.695312
6590.091818	0.928471	10.213177	0.020858
6591.141891	0.918011	-62.402344	636.230469
6591.143893	0.931680	-62.402344	636.230469
6591.145894	0.929313	10.222447	0.039654
6592.176480	0.740165	-195.117187	14.062500
6592.178482	0.928527	-195.117187	14.062500
6592.180483	0.931243	-195.117187	14.062500
6592.182484	0.929023	10.219256	0.024787
6593.229064	0.727336	-59.765625	637.109375
6593.231062	0.925591	-59.765625	637.109375
6593.233065	0.930661	-59.765625	637.109375
6593.235064	0.928347	10.211821	0.042438
6594.267079	0.603848	-198.144531	14.843750
6594.269081	0.875554	-198.144531	14.843750
6594.271081	0.932318	-198.144531	14.843750
6594.273082	0.929398	10.223377	0.422819
6595.317583	0.434033	-58.789062	635.937500
6595.319585	0.731107	-58.789062	635.937500
6595.321586	0.926499	-58.789062	635.937500
6595.323584	0.930747	-58.789062	635.937500
6595.325584	0.928473	10.213203	0.039200
6596.357688	0.770873	-198.046875	16.308594
6596.359689	0.932002	-198.046875	16.308594
6596.361688	0.931063	10.241695	0.029869
6597.407731	0.457402	-57.128906	636.328125
6597.409736	0.753953	-57.128906	636.328125
6597.411742	0.930058	-57.128906	636.328125
6597.413742	0.930603	10.236635	0.028825
6598.449801	0.782723	-204.492187	16.503906
6598.451803	0.932155	-204.492187	16.503906
6598.453805	0.930447	10.234916	0.036145
6599.496335	0.327211	-56.738281	643.554687
6599.498337	0.627809	-56.738281	643.554687
6599.500336	0.889328	-56.738281	643.554687
6599.502338	0.932269	-56.738281	643.554687
6599.504335	0.932153	10.253687	0.030842
6600.540383	0.722066	-209.375000	15.917969
6600.542387	0.924421	-209.375000	15.917969
6600.546385	0.928444	-209.375000	15.917969
6600.548385	0.926725	10.193972	0.034983
6601.584353	0.339420	-54.199219	641.210937
6601.586356	0.639464	-54.199219	641.210937
6601.588355	0.895119	-54.199219	641.210937
6601.592354	0.929097	-54.199219	641.210937
6601.594355	0.927274	10.200016	0.029118
6602.634393	0.923924	-204.101562	18.261719
6602.636394	0.930822	-204.101562	18.261719
6602.638395	0.928595	10.214550	0.038346
6603.674415	0.580293	-56.054687	648.535156
6603.676419	0.860536	-56.054687	648.535156
6603.678416	0.933391	-56.054687	648.535156
6603.680417	0.930398	10.234375	0.292563
6604.718970	0.363214	-212.597656	16.503906
6604.720972	0.662353	-212.597656	16.503906
6604.722971	0.905661	-212.597656	16.503906
6604.724971	0.931502	-212.597656	16.503906
6604.726973	0.929066	10.219726	0.043599
6605.762994	0.371712	-56.445312	652.246094
6605.764998	0.670599	-56.445312	652.246094
6605.767000	0.908941	-56.445312	652.246094
6605.768999	0.931107	-56.445312	652.246094
6605.770998	0.928651	10.215162	0.024566
6606.811963	0.582347	-208.105469	18.554687
6606.813966	0.861584	-208.105469	18.554687
6606.815965	0.932401	-208.105469	18.554687
6606.819963	0.927589	10.203482	0.043848
6607.854025	0.526876	-55.957031	648.632812
6607.856027	0.818926	-55.957031	648.632812
6607.858026	0.934346	-55.957031	648.632812
6607.860026	0.931369	10.245054	0.026994
6608.902038	0.674458	-215.332031	16.406250
6608.904041	0.910443	-215.332031	16.406250
6608.906042	0.931270	-215.332031	16.406250
6608.908041	0.928745	10.216190	0.044368
6609.944085	0.308851	-56.445312	648.730469
6609.946088	0.610163	-56.445312	648.730469
6609.948087	0.879485	-56.445312	648.730469
6609.950086	0.882856	-56.445312	648.730469
6609.952087	0.929775	10.227525	0.029029
6610.992142	0.461698	-214.453125	16.406250
6610.994145	0.758074	-214.453125	16.406250
6610.996146	0.931119	-214.453125	16.406250
6610.998145	0.931441	10.245852	0.044214
6612.036684	0.774262	-57.617187	643.945312
6612.038683	0.931605	-57.617187	643.945312
6612.040683	0.930324	10.233561	0.035170
6613.080729	0.405332	-216.894531	15.722656
6613.082731	0.703001	-216.894531	15.722656
6613.084732	0.920119	-216.894531	15.722656
6613.086732	0.931418	-216.894531	15.722656
6613.088732	0.929063	10.219690	0.043945
6614.123681	0.249470	-57.421875	641.992187
6614.125684	0.553896	-57.421875	641.992187
6614.127683	0.841277	-57.421875	641.992187
6614.129683	0.933996	-57.421875	641.992187
6614.133681	0.928973	10.218698	0.031991
6615.173762	0.922785	-211.816406	16.503906
6615.175763	0.930676	-211.816406	16.503906
6615.177766	0.930588	10.236466	0.052006
6616.217853	0.361107	-59.667969	647.949219
6616.221852	0.932754	-59.667969	647.949219
6616.223854	0.929675	-59.667969	647.949219
6616.225855	0.927724	10.204962	0.034313
